ENLIGHTEN Version,1.7.2
Measurement ID,20190904-090912-257914-WP-00340
Serial Number,WP-00340
Label,09:09:12 WP-00340
Integration Time,500
Timestamp,09:12.3
Note,
Temperature,9.993816972
CCD C0,801.7174072
CCD C1,0.141220003
CCD C2,-5.61E-06
CCD C3,-8.54E-09
CCD Offset,0
CCD Gain,1.9
Laser Wavelength,785
Laser Enable,TRUE
Laser Power,100
Laser Temperature,0
Pixel Count,1024
,
Wavenumber,Processed
265.63,72
267.83,87
270.02,127
272.22,156
274.41,198
276.6,238
278.8,303
280.99,394
283.18,475
285.37,624
287.55,692
289.74,847
291.93,991
294.11,1080
296.3,1212
298.48,1296
300.66,1341
302.84,1437
305.02,1494
307.2,1429
309.38,1514
311.56,1489
313.74,1506
315.91,1489
318.09,1519
320.26,1556
322.43,1482
324.61,1484
326.78,1543
328.95,1537
331.12,1530
333.28,1533
335.45,1572
337.62,1577
339.78,1588
341.95,1577
344.11,1621
346.27,1554
348.43,1562
350.59,1600
352.75,1602
354.91,1565
357.07,1589
359.23,1611
361.38,1605
363.54,1621
365.69,1604
367.84,1634
370,1613
372.15,1627
374.3,1621
376.45,1620
378.59,1607
380.74,1626
382.89,1688
385.03,1638
387.18,1649
389.32,1699
391.46,1687
393.6,1653
395.74,1602
397.88,1712
400.02,1710
402.16,1682
404.29,1689
406.43,1685
408.57,1661
410.7,1705
412.83,1671
414.96,1663
417.09,1682
419.22,1676
421.35,1668
423.48,1690
425.61,1712
427.73,1706
429.86,1720
431.98,1737
434.11,1655
436.23,1695
438.35,1720
440.47,1680
442.59,1722
444.71,1670
446.82,1695
448.94,1672
451.05,1672
453.17,1684
455.28,1669
457.39,1685
459.51,1690
461.62,1701
463.73,1708
465.83,1718
467.94,1674
470.05,1672
472.15,1684
474.26,1684
476.36,1714
478.47,1746
480.57,1717
482.67,1742
484.77,1744
486.87,1729
488.97,1785
491.06,1730
493.16,1795
495.25,1738
497.35,1771
499.44,1706
501.53,1729
503.62,1708
505.71,1720
507.8,1668
509.89,1627
511.98,1666
514.07,1634
516.15,1667
518.24,1612
520.32,1588
522.4,1590
524.48,1613
526.56,1647
528.64,1620
530.72,1589
532.8,1609
534.88,1600
536.95,1579
539.03,1613
541.1,1612
543.17,1592
545.24,1595
547.32,1663
549.39,1600
551.45,1636
553.52,1653
555.59,1596
557.66,1634
559.72,1590
561.78,1640
563.85,1593
565.91,1642
567.97,1623
570.03,1585
572.09,1613
574.15,1585
576.21,1629
578.26,1588
580.32,1636
582.37,1653
584.42,1615
586.48,1638
588.53,1644
590.58,1674
592.63,1648
594.68,1647
596.72,1634
598.77,1655
600.82,1666
602.86,1676
604.9,1706
606.95,1628
608.99,1653
611.03,1669
613.07,1665
615.11,1631
617.15,1638
619.18,1636
621.22,1657
623.25,1605
625.29,1639
627.32,1651
629.35,1678
631.38,1665
633.41,1656
635.44,1642
637.47,1629
639.5,1621
641.52,1610
643.55,1644
645.57,1637
647.6,1653
649.62,1648
651.64,1640
653.66,1632
655.68,1621
657.7,1623
659.71,1632
661.73,1623
663.75,1588
665.76,1668
667.77,1624
669.79,1638
671.8,1632
673.81,1602
675.82,1604
677.83,1651
679.83,1687
681.84,1657
683.84,1676
685.85,1653
687.85,1625
689.86,1619
691.86,1668
693.86,1648
695.86,1693
697.86,1638
699.85,1663
701.85,1721
703.85,1687
705.84,1705
707.84,1636
709.83,1701
711.82,1705
713.81,1691
715.8,1728
717.79,1726
719.78,1761
721.76,1777
723.75,1769
725.74,1798
727.72,1735
729.7,1735
731.68,1729
733.67,1706
735.65,1735
737.62,1731
739.6,1742
741.58,1740
743.56,1706
745.53,1724
747.51,1750
749.48,1720
751.45,1735
753.42,1718
755.39,1790
757.36,1744
759.33,1719
761.3,1714
763.26,1756
765.23,1760
767.19,1771
769.16,1765
771.12,1773
773.08,1744
775.04,1778
777,1822
778.96,1796
780.92,1808
782.87,1807
784.83,1828
786.78,1838
788.74,1849
790.69,1868
792.64,1794
794.59,1882
796.54,1846
798.49,1809
800.44,1832
802.38,1822
804.33,1813
806.27,1828
808.22,1798
810.16,1910
812.1,1811
814.04,1884
815.98,1811
817.92,1899
819.86,1870
821.8,1847
823.73,1856
825.67,1851
827.6,1849
829.53,1891
831.47,1864
833.4,1882
835.33,1900
837.26,1857
839.18,1893
841.11,1857
843.04,1870
844.96,1851
846.89,1913
848.81,1911
850.73,1879
852.65,1901
854.57,1914
856.49,1879
858.41,1874
860.33,1941
862.24,1895
864.16,1950
866.07,1941
867.99,1933
869.9,1980
871.81,1948
873.72,1944
875.63,1938
877.54,1973
879.44,1889
881.35,1926
883.26,1957
885.16,1946
887.06,1920
888.97,1912
890.87,1935
892.77,1931
894.67,1965
896.57,1889
898.46,1907
900.36,1906
902.26,1891
904.15,1912
906.04,1896
907.94,1889
909.83,1885
911.72,1908
913.61,1897
915.5,1849
917.38,1908
919.27,1927
921.16,1880
923.04,1897
924.92,1877
926.81,1857
928.69,1916
930.57,1897
932.45,1899
934.33,1847
936.2,1865
938.08,1848
939.96,1874
941.83,1811
943.71,1844
945.58,1873
947.45,1875
949.32,1822
951.19,1881
953.06,1845
954.93,1843
956.79,1847
958.66,1830
960.52,1809
962.39,1794
964.25,1789
966.11,1807
967.97,1819
969.83,1822
971.69,1851
973.55,1860
975.41,1800
977.26,1851
979.12,1866
980.97,1851
982.82,1855
984.68,1902
986.53,1838
988.38,1858
990.23,1851
992.07,1910
993.92,1893
995.77,1876
997.61,1902
999.46,1862
1001.3,1884
1003.14,1923
1004.98,1838
1006.82,1885
1008.66,1910
1010.5,1920
1012.34,1897
1014.17,1879
1016.01,1937
1017.84,1937
1019.68,1896
1021.51,1930
1023.34,1948
1025.17,1956
1027,1990
1028.83,1955
1030.65,1919
1032.48,1979
1034.31,1960
1036.13,1998
1037.95,2020
1039.77,2038
1041.6,2054
1043.42,2056
1045.24,2167
1047.05,2172
1048.87,2300
1050.69,2454
1052.5,2733
1054.32,3211
1056.13,3733
1057.94,4344
1059.75,4681
1061.56,4889
1063.37,4745
1065.18,4320
1066.99,3752
1068.8,3240
1070.6,2859
1072.41,2667
1074.21,2526
1076.01,2517
1077.81,2437
1079.61,2467
1081.41,2505
1083.21,2471
1085.01,2454
1086.81,2464
1088.6,2393
1090.4,2288
1092.19,2304
1093.98,2264
1095.77,2182
1097.56,2204
1099.35,2159
1101.14,2220
1102.93,2206
1104.72,2222
1106.5,2212
1108.29,2209
1110.07,2193
1111.85,2256
1113.63,2385
1115.41,2408
1117.19,2554
1118.97,2808
1120.75,3188
1122.53,3768
1124.3,4383
1126.08,4855
1127.85,4989
1129.62,4973
1131.39,4625
1133.17,4011
1134.93,3371
1136.7,2895
1138.47,2543
1140.24,2357
1142,2258
1143.77,2201
1145.53,2220
1147.29,2163
1149.06,2123
1150.82,2113
1152.58,2089
1154.34,2045
1156.09,2138
1157.85,2131
1159.61,2163
1161.36,2214
1163.11,2294
1164.87,2433
1166.62,2466
1168.37,2509
1170.12,2498
1171.87,2437
1173.62,2376
1175.36,2267
1177.11,2173
1178.85,2100
1180.6,2123
1182.34,2096
1184.08,2064
1185.82,2047
1187.56,2074
1189.3,2078
1191.04,2047
1192.78,2053
1194.51,2053
1196.25,2098
1197.98,2004
1199.71,2033
1201.45,2052
1203.18,2048
1204.91,2030
1206.64,2038
1208.36,2047
1210.09,2057
1211.82,2017
1213.54,2026
1215.27,2022
1216.99,2021
1218.71,2036
1220.43,2045
1222.15,2033
1223.87,2044
1225.59,2056
1227.31,2037
1229.02,2047
1230.74,1986
1232.45,2064
1234.16,1986
1235.88,1997
1237.59,2007
1239.3,2001
1241.01,2057
1242.71,2057
1244.42,2056
1246.13,2107
1247.83,2073
1249.54,2083
1251.24,2093
1252.94,2055
1254.64,2140
1256.34,2127
1258.04,2112
1259.74,2165
1261.44,2188
1263.13,2235
1264.83,2242
1266.52,2261
1268.22,2296
1269.91,2310
1271.6,2360
1273.29,2428
1274.98,2449
1276.67,2439
1278.35,2498
1280.04,2608
1281.73,2749
1283.41,2909
1285.09,3211
1286.78,3801
1288.46,4636
1290.14,5660
1291.82,6367
1293.49,6523
1295.17,6680
1296.85,6270
1298.52,5500
1300.2,4710
1301.87,3978
1303.54,3489
1305.21,3196
1306.88,2952
1308.55,2838
1310.22,2760
1311.89,2690
1313.56,2591
1315.22,2560
1316.89,2483
1318.55,2447
1320.21,2374
1321.87,2402
1323.53,2271
1325.19,2256
1326.85,2193
1328.51,2163
1330.16,2149
1331.82,2153
1333.47,2107
1335.13,2098
1336.78,2060
1338.43,2140
1340.08,2117
1341.73,2125
1343.38,2166
1345.03,2085
1346.67,2164
1348.32,2163
1349.96,2087
1351.61,2110
1353.25,2174
1354.89,2146
1356.53,2171
1358.17,2182
1359.81,2177
1361.45,2205
1363.08,2215
1364.72,2342
1366.35,2325
1367.99,2328
1369.62,2319
1371.25,2276
1372.88,2246
1374.51,2182
1376.14,2123
1377.77,2132
1379.39,2073
1381.02,2058
1382.64,2012
1384.27,2024
1385.89,2035
1387.51,2006
1389.13,2058
1390.75,2026
1392.37,2069
1393.99,2049
1395.6,2051
1397.22,2121
1398.83,2152
1400.45,2131
1402.06,2250
1403.67,2260
1405.28,2340
1406.89,2568
1408.5,2766
1410.11,2966
1411.71,3295
1413.32,3560
1414.92,3767
1416.53,3806
1418.13,3757
1419.73,3592
1421.33,3378
1422.93,3242
1424.53,3183
1426.13,3262
1427.72,3416
1429.32,3691
1430.91,4046
1432.51,4478
1434.1,4990
1435.69,5469
1437.28,5785
1438.87,5944
1440.46,5895
1442.05,5747
1443.64,5281
1445.22,4912
1446.81,4570
1448.39,4417
1449.97,4246
1451.55,4151
1453.14,4089
1454.72,4207
1456.29,4155
1457.87,4245
1459.45,4187
1461.02,4218
1462.6,4226
1464.17,4027
1465.75,3903
1467.32,3736
1468.89,3534
1470.46,3328
1472.03,3021
1473.59,2808
1475.16,2695
1476.73,2574
1478.29,2485
1479.86,2401
1481.42,2281
1482.98,2274
1484.54,2180
1486.1,2125
1487.66,2094
1489.22,2062
1490.77,2048
1492.33,2058
1493.88,2047
1495.44,1967
1496.99,2024
1498.54,1961
1500.09,1974
1501.64,1960
1503.19,1895
1504.74,1957
1506.29,1890
1507.83,1857
1509.38,1961
1510.92,1923
1512.47,1923
1514.01,1828
1515.55,1881
1517.09,1838
1518.63,1887
1520.16,1885
1521.7,1867
1523.24,1859
1524.77,1876
1526.31,1944
1527.84,1914
1529.37,1824
1530.9,1886
1532.43,1813
1533.96,1845
1535.49,1822
1537.02,1878
1538.54,1832
1540.07,1836
1541.59,1822
1543.11,1839
1544.64,1840
1546.16,1847
1547.68,1824
1549.2,1848
1550.71,1878
1552.23,1882
1553.75,1811
1555.26,1851
1556.78,1840
1558.29,1839
1559.8,1851
1561.31,1834
1562.82,1866
1564.33,1858
1565.84,1820
1567.35,1820
1568.85,1832
1570.36,1847
1571.86,1832
1573.36,1822
1574.87,1813
1576.37,1853
1577.87,1775
1579.37,1830
1580.87,1819
1582.36,1784
1583.86,1813
1585.35,1786
1586.85,1820
1588.34,1749
1589.83,1790
1591.32,1836
1592.81,1792
1594.3,1798
1595.79,1821
1597.28,1791
1598.76,1777
1600.25,1786
1601.73,1775
1603.22,1763
1604.7,1748
1606.18,1767
1607.66,1726
1609.14,1771
1610.62,1735
1612.1,1724
1613.57,1778
1615.05,1722
1616.52,1717
1617.99,1756
1619.47,1763
1620.94,1687
1622.41,1736
1623.88,1712
1625.35,1707
1626.81,1650
1628.28,1716
1629.74,1659
1631.21,1681
1632.67,1655
1634.13,1687
1635.6,1682
1637.06,1688
1638.51,1714
1639.97,1657
1641.43,1665
1642.89,1687
1644.34,1638
1645.8,1667
1647.25,1642
1648.7,1693
1650.15,1672
1651.6,1638
1653.05,1647
1654.5,1664
1655.95,1636
1657.4,1639
1658.84,1592
1660.28,1659
1661.73,1665
1663.17,1631
1664.61,1636
1666.05,1626
1667.49,1648
1668.93,1634
1670.37,1642
1671.8,1621
1673.24,1580
1674.67,1626
1676.11,1596
1677.54,1624
1678.97,1628
1680.4,1605
1681.83,1643
1683.26,1628
1684.69,1554
1686.11,1601
1687.54,1604
1688.96,1564
1690.39,1605
1691.81,1613
1693.23,1586
1694.65,1604
1696.07,1590
1697.49,1566
1698.91,1586
1700.32,1568
1701.74,1596
1703.15,1604
1704.57,1609
1705.98,1554
1707.39,1563
1708.8,1610
1710.21,1593
1711.62,1525
1713.03,1602
1714.43,1583
1715.84,1537
1717.24,1535
1718.65,1550
1720.05,1606
1721.45,1587
1722.85,1546
1724.25,1568
1725.65,1549
1727.05,1571
1728.44,1549
1729.84,1558
1731.23,1532
1732.63,1537
1734.02,1543
1735.41,1529
1736.8,1518
1738.19,1511
1739.58,1518
1740.97,1567
1742.35,1552
1743.74,1533
1745.12,1537
1746.51,1554
1747.89,1531
1749.27,1527
1750.65,1539
1752.03,1478
1753.41,1543
1754.79,1552
1756.17,1501
1757.54,1493
1758.92,1503
1760.29,1501
1761.66,1524
1763.03,1581
1764.41,1554
1765.78,1478
1767.14,1474
1768.51,1477
1769.88,1526
1771.24,1512
1772.61,1499
1773.97,1485
1775.34,1463
1776.7,1469
1778.06,1507
1779.42,1456
1780.78,1455
1782.13,1454
1783.49,1465
1784.85,1452
1786.2,1451
1787.56,1468
1788.91,1406
1790.26,1409
1791.61,1490
1792.96,1428
1794.31,1453
1795.66,1432
1797,1431
1798.35,1457
1799.69,1426
1801.04,1446
1802.38,1429
1803.72,1408
1805.06,1402
1806.4,1396
1807.74,1444
1809.08,1418
1810.42,1398
1811.75,1406
1813.09,1422
1814.42,1417
1815.76,1406
1817.09,1396
1818.42,1398
1819.75,1394
1821.08,1353
1822.4,1371
1823.73,1396
1825.06,1356
1826.38,1347
1827.71,1368
1829.03,1426
1830.35,1413
1831.67,1362
1832.99,1347
1834.31,1345
1835.63,1355
1836.95,1341
1838.26,1359
1839.58,1347
1840.89,1305
1842.2,1353
1843.52,1358
1844.83,1328
1846.14,1334
1847.45,1345
1848.75,1354
1850.06,1305
1851.37,1372
1852.67,1354
1853.98,1331
1855.28,1334
1856.58,1351
1857.88,1305
1859.18,1309
1860.48,1296
1861.78,1288
1863.08,1326
1864.37,1308
1865.67,1246
1866.96,1284
1868.26,1326
1869.55,1348
1870.84,1313
1872.13,1267
1873.42,1246
1874.71,1277
1875.99,1250
1877.28,1277
1878.56,1249
1879.85,1253
1881.13,1265
1882.41,1272
1883.69,1291
1884.97,1251
1886.25,1239
1887.53,1295
1888.81,1250
1890.09,1220
1891.36,1280
1892.63,1252
1893.91,1273
1895.18,1248
1896.45,1223
1897.72,1212
1898.99,1225
1900.26,1214
1901.53,1194
1902.79,1214
1904.06,1202
1905.32,1198
1906.58,1220
1907.85,1172
1909.11,1175
1910.37,1197
1911.63,1197
1912.89,1204
1914.14,1183
1915.4,1208
1916.65,1147
1917.91,1185
1919.16,1147
1920.41,1183
1921.67,1164
1922.92,1168
1924.17,1170
1925.41,1158
1926.66,1145
1927.91,1149
1929.15,1128
1930.4,1111
1931.64,1138
1932.88,1129
1934.12,1151
1935.36,1159
1936.6,1151
1937.84,1147
1939.08,1124
1940.32,1107
1941.55,1111
1942.79,1128
1944.02,1122
1945.25,1113
1946.48,1111
1947.71,1113
1948.94,1111
1950.17,1098
1951.4,1075
1952.62,1090
1953.85,1083
1955.07,1101
1956.3,1107
1957.52,1107
1958.74,1099
1959.96,1078
1961.18,1096
1962.4,1089
1963.62,1046
1964.83,1104
1966.05,1070
1967.26,1095
1968.48,1092
1969.69,1098
1970.9,1090
1972.11,1063
1973.32,1039
1974.53,1046
1975.74,1012
1976.94,1035
1978.15,1075
1979.35,1017
1980.56,1014
1981.76,1063
1982.96,1065
1984.16,1043
1985.36,1018
1986.56,1035
1987.76,1047
1988.95,1024
1990.15,1025
1991.34,1026
1992.54,1054
1993.73,1036
1994.92,1036
1996.11,1035
1997.3,1008
1998.49,1021
1999.68,1012