ENLIGHTEN Version,1.7.2
Measurement ID,20190904-085454-219501-WP-00340
Serial Number,WP-00340
Label,08:54:54 WP-00340
Integration Time,200
Timestamp,54:54.2
Note,
Temperature,10.01085411
CCD C0,801.7174072
CCD C1,0.141220003
CCD C2,-5.61E-06
CCD C3,-8.54E-09
CCD Offset,0
CCD Gain,1.9
Laser Wavelength,785
Laser Enable,TRUE
Laser Power,100
Laser Temperature,0
Pixel Count,1024
,
Wavenumber,Processed
265.63,155
267.83,204
270.02,267
272.22,350
274.41,440
276.6,554
278.8,683
280.99,884
283.18,1151
285.37,1425
287.55,1718
289.74,2020
291.93,2334
294.11,2633
296.3,2903
298.48,3131
300.66,3314
302.84,3479
305.02,3550
307.2,3582
309.38,3639
311.56,3631
313.74,3672
315.91,3699
318.09,3675
320.26,3704
322.43,3729
324.61,3728
326.78,3712
328.95,3741
331.12,3769
333.28,3799
335.45,3833
337.62,3813
339.78,3835
341.95,3818
344.11,3844
346.27,3904
348.43,3883
350.59,3934
352.75,3873
354.91,3925
357.07,3951
359.23,3977
361.38,3902
363.54,3922
365.69,3898
367.84,3896
370,3915
372.15,3967
374.3,3990
376.45,3923
378.59,3941
380.74,3919
382.89,3973
385.03,4001
387.18,4020
389.32,4081
391.46,4092
393.6,4057
395.74,4058
397.88,4117
400.02,4119
402.16,4212
404.29,4195
406.43,4310
408.57,4339
410.7,4328
412.83,4414
414.96,4514
417.09,4533
419.22,4609
421.35,4667
423.48,4756
425.61,4843
427.73,4963
429.86,5013
431.98,5094
434.11,5180
436.23,5264
438.35,5350
440.47,5439
442.59,5489
444.71,5522
446.82,5538
448.94,5521
451.05,5445
453.17,5265
455.28,5221
457.39,5098
459.51,4960
461.62,4824
463.73,4691
465.83,4524
467.94,4490
470.05,4453
472.15,4372
474.26,4282
476.36,4202
478.47,4227
480.57,4114
482.67,4141
484.77,4135
486.87,4041
488.97,4084
491.06,4093
493.16,4115
495.25,4057
497.35,4048
499.44,4014
501.53,3999
503.62,3943
505.71,3902
507.8,3960
509.89,3936
511.98,3934
514.07,3922
516.15,3923
518.24,3905
520.32,3908
522.4,3908
524.48,3877
526.56,3829
528.64,3894
530.72,3875
532.8,3892
534.88,3919
536.95,3860
539.03,3880
541.1,3908
543.17,3928
545.24,3869
547.32,3920
549.39,3978
551.45,3923
553.52,3960
555.59,3938
557.66,3974
559.72,4054
561.78,4029
563.85,4047
565.91,4082
567.97,4202
570.03,4162
572.09,4206
574.15,4225
576.21,4315
578.26,4360
580.32,4393
582.37,4499
584.42,4485
586.48,4550
588.53,4666
590.58,4724
592.63,4785
594.68,4917
596.72,4988
598.77,5064
600.82,5127
602.86,5251
604.9,5285
606.95,5365
608.99,5389
611.03,5312
613.07,5193
615.11,5169
617.15,5136
619.18,5035
621.22,4914
623.25,4826
625.29,4744
627.32,4636
629.35,4623
631.38,4581
633.41,4484
635.44,4428
637.47,4371
639.5,4274
641.52,4168
643.55,4102
645.57,4033
647.6,3999
649.62,3981
651.64,3893
653.66,3900
655.68,3903
657.7,3822
659.71,3803
661.73,3862
663.75,3836
665.76,3852
667.77,3793
669.79,3835
671.8,3774
673.81,3793
675.82,3814
677.83,3732
679.83,3780
681.84,3727
683.84,3792
685.85,3746
687.85,3738
689.86,3750
691.86,3735
693.86,3719
695.86,3713
697.86,3764
699.85,3736
701.85,3738
703.85,3707
705.84,3710
707.84,3759
709.83,3727
711.82,3732
713.81,3733
715.8,3782
717.79,3679
719.78,3757
721.76,3753
723.75,3736
725.74,3763
727.72,3754
729.7,3720
731.68,3700
733.67,3693
735.65,3662
737.62,3651
739.6,3672
741.58,3613
743.56,3754
745.53,3763
747.51,3794
749.48,3742
751.45,3793
753.42,3736
755.39,3698
757.36,3710
759.33,3670
761.3,3657
763.26,3568
765.23,3658
767.19,3626
769.16,3622
771.12,3639
773.08,3611
775.04,3635
777,3702
778.96,3713
780.92,3763
782.87,3868
784.83,3896
786.78,3906
788.74,3837
790.69,3853
792.64,3725
794.59,3700
796.54,3717
798.49,3656
800.44,3637
802.38,3663
804.33,3689
806.27,3687
808.22,3672
810.16,3742
812.1,3694
814.04,3689
815.98,3795
817.92,3803
819.86,3891
821.8,3871
823.73,3913
825.67,3961
827.6,3907
829.53,3974
831.47,3973
833.4,3971
835.33,3968
837.26,3989
839.18,3985
841.11,3930
843.04,3910
844.96,3854
846.89,3780
848.81,3755
850.73,3751
852.65,3757
854.57,3652
856.49,3677
858.41,3706
860.33,3696
862.24,3648
864.16,3615
866.07,3645
867.99,3683
869.9,3700
871.81,3675
873.72,3620
875.63,3696
877.54,3654
879.44,3622
881.35,3689
883.26,3654
885.16,3677
887.06,3702
888.97,3693
890.87,3616
892.77,3638
894.67,3580
896.57,3544
898.46,3533
900.36,3485
902.26,3491
904.15,3489
906.04,3461
907.94,3423
909.83,3478
911.72,3479
913.61,3392
915.5,3476
917.38,3447
919.27,3530
921.16,3451
923.04,3468
924.92,3460
926.81,3428
928.69,3439
930.57,3437
932.45,3379
934.33,3440
936.2,3424
938.08,3432
939.96,3461
941.83,3386
943.71,3447
945.58,3476
947.45,3542
949.32,3452
951.19,3480
953.06,3464
954.93,3485
956.79,3489
958.66,3369
960.52,3346
962.39,3351
964.25,3297
966.11,3348
967.97,3297
969.83,3335
971.69,3238
973.55,3284
975.41,3286
977.26,3268
979.12,3278
980.97,3240
982.82,3222
984.68,3287
986.53,3261
988.38,3297
990.23,3301
992.07,3261
993.92,3319
995.77,3346
997.61,3392
999.46,3447
1001.3,3402
1003.14,3478
1004.98,3464
1006.82,3417
1008.66,3445
1010.5,3355
1012.34,3303
1014.17,3316
1016.01,3345
1017.84,3335
1019.68,3361
1021.51,3321
1023.34,3279
1025.17,3276
1027,3297
1028.83,3346
1030.65,3339
1032.48,3328
1034.31,3367
1036.13,3360
1037.95,3444
1039.77,3450
1041.6,3456
1043.42,3531
1045.24,3546
1047.05,3663
1048.87,3796
1050.69,4179
1052.5,4840
1054.32,5543
1056.13,6797
1057.94,7950
1059.75,8912
1061.56,9287
1063.37,8941
1065.18,8020
1066.99,6877
1068.8,5827
1070.6,5118
1072.41,4610
1074.21,4288
1076.01,4294
1077.81,4246
1079.61,4226
1081.41,4192
1083.21,4176
1085.01,4159
1086.81,4052
1088.6,4036
1090.4,3967
1092.19,3885
1093.98,3827
1095.77,3791
1097.56,3782
1099.35,3711
1101.14,3679
1102.93,3609
1104.72,3664
1106.5,3683
1108.29,3730
1110.07,3746
1111.85,3831
1113.63,3962
1115.41,4088
1117.19,4442
1118.97,4821
1120.75,5570
1122.53,6613
1124.3,7789
1126.08,8728
1127.85,9299
1129.62,9361
1131.39,8639
1133.17,7360
1134.93,6171
1136.7,5041
1138.47,4360
1140.24,3902
1142,3681
1143.77,3492
1145.53,3468
1147.29,3406
1149.06,3374
1150.82,3275
1152.58,3344
1154.34,3289
1156.09,3329
1157.85,3398
1159.61,3407
1161.36,3536
1163.11,3791
1164.87,3991
1166.62,4145
1168.37,4258
1170.12,4189
1171.87,4111
1173.62,3924
1175.36,3721
1177.11,3620
1178.85,3655
1180.6,3700
1182.34,3678
1184.08,3761
1185.82,3738
1187.56,3656
1189.3,3577
1191.04,3435
1192.78,3417
1194.51,3253
1196.25,3217
1197.98,3152
1199.71,3251
1201.45,3296
1203.18,3318
1204.91,3246
1206.64,3226
1208.36,3212
1210.09,3179
1211.82,3118
1213.54,3067
1215.27,3049
1216.99,3019
1218.71,3085
1220.43,3017
1222.15,3082
1223.87,3048
1225.59,3000
1227.31,3036
1229.02,2947
1230.74,2951
1232.45,2962
1234.16,2947
1235.88,2962
1237.59,2977
1239.3,2970
1241.01,2941
1242.71,2992
1244.42,2981
1246.13,2994
1247.83,3012
1249.54,3069
1251.24,3023
1252.94,3089
1254.64,3143
1256.34,3111
1258.04,3140
1259.74,3169
1261.44,3231
1263.13,3293
1264.83,3283
1266.52,3299
1268.22,3283
1269.91,3324
1271.6,3377
1273.29,3465
1274.98,3412
1276.67,3495
1278.35,3529
1280.04,3649
1281.73,3822
1283.41,4079
1285.09,4671
1286.78,5681
1288.46,7328
1290.14,9171
1291.82,10784
1293.49,11374
1295.17,11962
1296.85,11114
1298.52,9513
1300.2,7863
1301.87,6398
1303.54,5257
1305.21,4668
1306.88,4252
1308.55,4090
1310.22,3902
1311.89,3773
1313.56,3646
1315.22,3489
1316.89,3422
1318.55,3400
1320.21,3296
1321.87,3201
1323.53,3250
1325.19,3160
1326.85,3097
1328.51,3013
1330.16,3004
1331.82,2901
1333.47,2947
1335.13,2840
1336.78,2876
1338.43,2842
1340.08,2797
1341.73,2874
1343.38,2901
1345.03,2824
1346.67,2871
1348.32,2812
1349.96,2817
1351.61,2776
1353.25,2804
1354.89,2776
1356.53,2768
1358.17,2861
1359.81,2840
1361.45,2930
1363.08,2943
1364.72,3071
1366.35,3209
1367.99,3232
1369.62,3171
1371.25,3134
1372.88,3084
1374.51,2941
1376.14,2939
1377.77,2823
1379.39,2738
1381.02,2653
1382.64,2671
1384.27,2680
1385.89,2627
1387.51,2699
1389.13,2667
1390.75,2702
1392.37,2633
1393.99,2702
1395.6,2663
1397.22,2749
1398.83,2709
1400.45,2744
1402.06,2838
1403.67,2855
1405.28,3013
1406.89,3263
1408.5,3729
1410.11,4288
1411.71,4972
1413.32,5489
1414.92,5848
1416.53,5937
1418.13,5804
1419.73,5577
1421.33,5178
1422.93,4897
1424.53,4785
1426.13,4906
1427.72,5208
1429.32,5690
1430.91,6360
1432.51,7214
1434.1,8214
1435.69,9206
1437.28,9966
1438.87,10364
1440.46,10399
1442.05,10041
1443.64,9292
1445.22,8522
1446.81,7942
1448.39,7448
1449.97,7071
1451.55,6980
1453.14,6875
1454.72,6930
1456.29,7044
1457.87,7118
1459.45,7217
1461.02,7144
1462.6,7099
1464.17,6843
1465.75,6539
1467.32,6150
1468.89,5669
1470.46,5317
1472.03,4868
1473.59,4494
1475.16,4151
1476.73,3868
1478.29,3594
1479.86,3455
1481.42,3305
1482.98,3188
1484.54,3068
1486.1,2977
1487.66,2887
1489.22,2796
1490.77,2751
1492.33,2745
1493.88,2705
1495.44,2638
1496.99,2601
1498.54,2615
1500.09,2526
1501.64,2530
1503.19,2534
1504.74,2499
1506.29,2479
1507.83,2488
1509.38,2421
1510.92,2368
1512.47,2453
1514.01,2394
1515.55,2398
1517.09,2393
1518.63,2388
1520.16,2370
1521.7,2443
1523.24,2303
1524.77,2342
1526.31,2336
1527.84,2384
1529.37,2355
1530.9,2330
1532.43,2338
1533.96,2346
1535.49,2330
1537.02,2295
1538.54,2310
1540.07,2294
1541.59,2289
1543.11,2266
1544.64,2265
1546.16,2288
1547.68,2298
1549.2,2254
1550.71,2225
1552.23,2262
1553.75,2222
1555.26,2252
1556.78,2237
1558.29,2224
1559.8,2176
1561.31,2218
1562.82,2146
1564.33,2148
1565.84,2185
1567.35,2177
1568.85,2211
1570.36,2209
1571.86,2173
1573.36,2220
1574.87,2142
1576.37,2163
1577.87,2091
1579.37,2147
1580.87,2073
1582.36,2077
1583.86,2092
1585.35,2094
1586.85,2064
1588.34,2085
1589.83,2026
1591.32,2073
1592.81,2090
1594.3,2064
1595.79,2054
1597.28,2056
1598.76,2106
1600.25,2123
1601.73,2154
1603.22,2182
1604.7,2182
1606.18,2239
1607.66,2304
1609.14,2351
1610.62,2349
1612.1,2299
1613.57,2296
1615.05,2202
1616.52,2135
1617.99,2140
1619.47,2066
1620.94,2043
1622.41,1994
1623.88,1974
1625.35,1954
1626.81,1915
1628.28,1924
1629.74,1918
1631.21,1898
1632.67,1877
1634.13,1889
1635.6,1876
1637.06,1861
1638.51,1845
1639.97,1902
1641.43,1824
1642.89,1802
1644.34,1798
1645.8,1792
1647.25,1792
1648.7,1807
1650.15,1771
1651.6,1805
1653.05,1761
1654.5,1773
1655.95,1788
1657.4,1809
1658.84,1769
1660.28,1765
1661.73,1823
1663.17,1763
1664.61,1773
1666.05,1721
1667.49,1759
1668.93,1771
1670.37,1737
1671.8,1783
1673.24,1720
1674.67,1780
1676.11,1710
1677.54,1790
1678.97,1754
1680.4,1754
1681.83,1730
1683.26,1716
1684.69,1713
1686.11,1693
1687.54,1716
1688.96,1678
1690.39,1735
1691.81,1712
1693.23,1693
1694.65,1699
1696.07,1697
1697.49,1685
1698.91,1598
1700.32,1640
1701.74,1667
1703.15,1650
1704.57,1662
1705.98,1623
1707.39,1614
1708.8,1645
1710.21,1624
1711.62,1613
1713.03,1579
1714.43,1620
1715.84,1579
1717.24,1571
1718.65,1574
1720.05,1575
1721.45,1509
1722.85,1573
1724.25,1525
1725.65,1527
1727.05,1575
1728.44,1549
1729.84,1536
1731.23,1501
1732.63,1537
1734.02,1529
1735.41,1483
1736.8,1499
1738.19,1493
1739.58,1489
1740.97,1471
1742.35,1486
1743.74,1513
1745.12,1491
1746.51,1488
1747.89,1503
1749.27,1495
1750.65,1440
1752.03,1457
1753.41,1465
1754.79,1423
1756.17,1459
1757.54,1438
1758.92,1490
1760.29,1436
1761.66,1448
1763.03,1448
1764.41,1418
1765.78,1408
1767.14,1436
1768.51,1417
1769.88,1356
1771.24,1416
1772.61,1362
1773.97,1396
1775.34,1381
1776.7,1379
1778.06,1372
1779.42,1383
1780.78,1362
1782.13,1385
1783.49,1362
1784.85,1322
1786.2,1315
1787.56,1320
1788.91,1309
1790.26,1327
1791.61,1330
1792.96,1298
1794.31,1282
1795.66,1318
1797,1309
1798.35,1271
1799.69,1286
1801.04,1286
1802.38,1300
1803.72,1286
1805.06,1250
1806.4,1286
1807.74,1273
1809.08,1261
1810.42,1229
1811.75,1257
1813.09,1229
1814.42,1206
1815.76,1258
1817.09,1204
1818.42,1197
1819.75,1199
1821.08,1218
1822.4,1225
1823.73,1182
1825.06,1191
1826.38,1193
1827.71,1219
1829.03,1194
1830.35,1224
1831.67,1174
1832.99,1122
1834.31,1170
1835.63,1143
1836.95,1168
1838.26,1128
1839.58,1131
1840.89,1122
1842.2,1125
1843.52,1110
1844.83,1111
1846.14,1115
1847.45,1123
1848.75,1125
1850.06,1113
1851.37,1139
1852.67,1111
1853.98,1105
1855.28,1090
1856.58,1066
1857.88,1080
1859.18,1096
1860.48,1085
1861.78,1067
1863.08,1076
1864.37,1075
1865.67,1043
1866.96,1066
1868.26,1041
1869.55,1062
1870.84,1035
1872.13,1081
1873.42,1039
1874.71,1050
1875.99,1060
1877.28,1026
1878.56,1031
1879.85,1016
1881.13,1008
1882.41,1037
1883.69,983
1884.97,959
1886.25,1002
1887.53,983
1888.81,976
1890.09,1002
1891.36,972
1892.63,955
1893.91,970
1895.18,982
1896.45,967
1897.72,957
1898.99,955
1900.26,942
1901.53,915
1902.79,915
1904.06,934
1905.32,910
1906.58,950
1907.85,917
1909.11,915
1910.37,886
1911.63,883
1912.89,932
1914.14,896
1915.4,888
1916.65,883
1917.91,872
1919.16,847
1920.41,847
1921.67,898
1922.92,871
1924.17,852
1925.41,843
1926.66,869
1927.91,829
1929.15,864
1930.4,865
1931.64,850
1932.88,841
1934.12,824
1935.36,827
1936.6,805
1937.84,820
1939.08,799
1940.32,811
1941.55,782
1942.79,815
1944.02,807
1945.25,776
1946.48,801
1947.71,786
1948.94,797
1950.17,805
1951.4,780
1952.62,810
1953.85,773
1955.07,772
1956.3,753
1957.52,763
1958.74,769
1959.96,742
1961.18,757
1962.4,745
1963.62,727
1964.83,753
1966.05,740
1967.26,721
1968.48,725
1969.69,694
1970.9,732
1972.11,716
1973.32,702
1974.53,733
1975.74,715
1976.94,700
1978.15,709
1979.35,710
1980.56,696
1981.76,697
1982.96,670
1984.16,698
1985.36,671
1986.56,658
1987.76,672
1988.95,675
1990.15,675
1991.34,675
1992.54,675
1993.73,700
1994.92,679
1996.11,656
1997.3,664
1998.49,634
1999.68,639